Data from Philips_4000K_2,3W_485Lumen_600ms_1__0__15-30-16-298.txt Node

Date: Thu Dec 18 15:30:16 CET 2025
User: Stefan
Spectrometer: ?
Trigger mode: 0
Integration Time (sec): 6,000000E-1
Scans to average: 1
Electric dark correction enabled: true
Nonlinearity correction enabled: true
Boxcar width: 0
XAxis mode: Wavelengths
Number of Pixels in Spectrum: 3648
>>>>>Begin Spectral Data<<<<<
195,033	-739,50494
195,299	-739,50494
195,565	-739,50494
195,831	-794,75166
196,098	-690,17837
196,364	341,60754
196,63	-58,85392
196,896	-100,28212
197,162	45,70187
197,428	69,37468
197,694	-13,48046
197,96	-262,05213
198,226	104,88376
198,492	-15,45322
198,757	-27,28974
199,023	-116,06437
199,289	31,8927
199,555	511,25669
199,821	51,62008
200,087	77,2656
200,353	156,1744
200,618	75,29287
200,884	434,32302
201,15	73,32014
201,416	20,05625
201,682	166,03795
201,947	649,34192
202,213	87,12924
202,479	93,04742
202,744	37,81092
203,01	225,21903
203,276	373,17033
203,541	181,81961
203,807	189,71042
204,073	177,87419
204,338	183,79231
204,604	112,77465
204,869	142,36541
205,135	118,69281
205,401	104,88376
205,666	171,95607
205,932	274,53634
206,197	315,96272
206,463	134,47455
206,728	400,78771
206,994	-98,30934
207,259	229,16443
207,524	339,63486
207,79	118,69281
208,055	130,52912
208,321	22,029
208,586	185,76502
208,851	162,09253
209,117	312,01735
209,382	-151,57456
209,647	83,18379
209,913	495,47545
210,178	475,74889
210,443	365,27964
210,708	-50,96286
210,974	-37,15353
211,239	379,08834
211,504	227,19173
211,769	306,09931
212,034	554,65501
212,3	227,19173
212,565	-54,90839
212,83	162,09253
213,095	55,56555
213,36	219,30094
213,625	67,40195
213,89	225,21903
214,155	164,06524
214,42	406,70571
214,685	181,81961
214,95	278,48172
215,215	302,15394
215,48	331,74415
215,745	467,85825
216,01	-27,28974
216,275	408,67837
216,54	317,9354
216,805	-47,01734
217,07	65,42922
217,335	-45,04457
217,6	383,03368
217,864	81,21106
218,129	418,5417
218,394	298,20858
218,659	45,70187
218,924	235,08251
219,188	235,08251
219,453	339,63486
219,718	572,40884
219,983	260,72752
220,247	173,92878
220,512	201,54664
220,777	572,40884
221,041	377,11567
221,306	797,28944
221,571	181,81961
221,835	534,92852
222,1	164,06524
222,364	134,47455
222,629	422,48703
222,894	130,52912
223,158	63,45649
223,423	169,98336
223,687	39,78366
223,952	-76,60883
224,216	199,57394
224,481	485,61217
224,745	-88,44547
225,009	244,94599
225,274	590,16266
225,538	554,65501
225,803	448,13165
226,067	166,03795
226,331	102,91104
226,596	-3,61671
226,86	471,80357
227,124	714,43894
227,389	122,63825
227,653	497,44811
227,917	242,97329
228,181	118,69281
228,446	223,24634
228,71	-21,37148
228,974	142,36541
229,238	379,08834
229,502	169,98336
229,767	168,01066
230,031	290,31784
230,295	430,37769
230,559	146,31084
230,823	128,5564
231,087	286,37247
231,351	888,03022
231,615	874,22186
231,879	132,50183
232,143	262,70021
232,407	357,38894
232,671	203,51934
232,935	248,89137
233,199	213,38285
233,463	329,77147
233,727	381,06101
233,991	51,62008
234,255	325,82612
234,519	588,19001
234,783	47,67461
235,047	65,42922
235,311	195,62854
235,574	65,42922
235,838	116,72009
236,102	221,27364
236,366	345,55289
236,63	217,32824
236,893	203,51934
237,157	410,65104
237,421	264,6729
237,684	304,12663
237,948	77,2656
238,212	98,96559
238,475	300,18126
238,739	369,22498
239,003	538,87382
239,266	742,0558
239,53	337,66219
239,794	122,63825
240,057	138,41998
240,321	266,64559
240,584	185,76502
240,848	126,58368
241,111	-45,04457
241,375	365,27964
241,638	619,75231
241,902	345,55289
242,165	256,78214
242,429	160,11982
242,692	306,09931
242,955	108,82921
243,219	434,32302
243,482	475,74889
243,746	-9,53496
244,009	363,30697
244,272	335,68951
244,536	379,08834
244,799	463,91294
245,062	158,14711
245,325	268,61828
245,589	250,86406
245,852	280,45441
246,115	505,33873
246,378	-125,92829
246,641	343,58022
246,905	169,98336
247,168	235,08251
247,431	248,89137
247,694	146,31084
247,957	353,44359
248,22	321,88076
248,483	173,92878
248,746	262,70021
249,009	-76,60883
249,273	288,34515
249,536	221,27364
249,799	-15,45322
250,062	298,20858
250,324	377,11567
250,587	337,66219
250,85	75,29287
251,113	118,69281
251,376	402,76037
251,639	130,52912
251,902	434,32302
252,165	661,17776
252,428	102,91104
252,691	509,28404
252,953	227,19173
253,216	213,38285
253,479	284,39978
253,742	-39,12629
254,005	65,42922
254,267	177,87419
254,53	422,48703
254,793	485,61217
255,055	280,45441
255,318	396,84237
255,581	373,17033
255,843	191,68313
256,106	124,61096
256,369	195,62854
256,631	239,0279
256,894	116,72009
257,157	385,00635
257,419	-125,92829
257,682	331,74415
257,944	471,80357
258,207	225,21903
258,469	154,20169
258,732	260,72752
258,994	71,34741
259,257	75,29287
259,519	148,28355
259,781	262,70021
260,044	43,72914
260,306	169,98336
260,569	124,61096
260,831	102,91104
261,093	313,99004
261,356	290,31784
261,618	282,42709
261,88	91,07469
262,143	67,40195
262,405	-39,12629
262,667	63,45649
262,929	142,36541
263,192	562,54561
263,454	-41,09905
263,716	-149,60177
263,978	312,01735
264,24	209,43745
264,502	179,8469
264,765	272,56366
265,027	505,33873
265,289	235,08251
265,551	65,42922
265,813	150,25626
266,075	168,01066
266,337	343,58022
266,599	122,63825
266,861	89,10197
267,123	434,32302
267,385	463,91294
267,647	33,86544
267,909	191,68313
268,171	487,58483
268,433	35,83818
268,695	501,39342
268,957	333,71683
269,219	69,37468
269,48	442,21367
269,742	14,13802
270,004	183,79231
270,266	116,72009
270,528	95,02014
270,789	454,04964
271,051	457,99496
271,313	448,13165
271,575	292,29052
271,836	248,89137
272,098	61,48375
272,36	422,48703
272,621	221,27364
272,883	67,40195
273,145	152,22897
273,406	102,91104
273,668	136,44726
273,93	24,00174
274,191	132,50183
274,453	298,20858
274,714	225,21903
274,976	168,01066
275,237	264,6729
275,499	75,29287
275,76	75,29287
276,022	227,19173
276,283	242,97329
276,545	258,75483
276,806	37,81092
277,068	440,24101
277,329	406,70571
277,59	201,54664
277,852	79,23833
278,113	280,45441
278,374	319,90808
278,636	381,06101
278,897	29,91996
279,158	252,83676
279,42	14,13802
279,681	412,62371
279,942	361,33429
280,203	264,6729
280,464	177,87419
280,726	98,96559
280,987	73,32014
281,248	229,16443
281,509	306,09931
281,77	278,48172
282,031	104,88376
282,292	302,15394
282,554	394,8697
282,815	173,92878
283,076	436,29568
283,337	341,60754
283,598	-33,20802
283,859	386,97902
284,12	205,49204
284,381	246,91868
284,642	223,24634
284,903	193,65583
285,164	-137,76502
285,424	201,54664
285,685	211,41015
285,946	57,53829
286,207	242,97329
286,468	175,90149
286,729	-9,53496
286,99	596,08059
287,25	49,64735
287,511	181,81961
287,772	112,77465
288,033	169,98336
288,294	120,66553
288,554	33,86544
288,815	142,36541
289,076	302,15394
289,336	85,15651
289,597	286,37247
289,858	625,67024
290,118	122,63825
290,379	120,66553
290,639	233,10982
290,9	69,37468
291,161	53,59282
291,421	286,37247
291,682	290,31784
291,942	175,90149
292,203	154,20169
292,463	43,72914
292,724	33,86544
292,984	95,02014
293,245	495,47545
293,505	116,72009
293,766	156,1744
294,026	1817,12787
294,286	521,11996
294,547	477,72155
294,807	244,94599
295,067	359,36162
295,328	199,57394
295,588	142,36541
295,848	333,71683
296,109	197,60124
296,369	235,08251
296,629	302,15394
296,889	454,04964
297,15	211,41015
297,41	426,43236
297,67	454,04964
297,93	187,73772
298,19	10,19253
298,45	363,30697
298,711	209,43745
298,971	491,53014
299,231	438,26834
299,491	424,4597
299,751	406,70571
300,011	298,20858
300,271	144,33812
300,531	420,51437
300,791	209,43745
301,051	-64,77222
301,311	292,29052
301,571	156,1744
301,831	270,59097
302,091	337,66219
302,351	-15,45322
302,61	817,01572
302,87	-165,38414
303,13	294,26321
303,39	-110,14602
303,65	331,74415
303,91	57,53829
304,169	83,18379
304,429	175,90149
304,689	134,47455
304,949	738,11054
305,209	396,84237
305,468	345,55289
305,728	10,19253
305,988	91,07469
306,247	195,62854
306,507	341,60754
306,767	635,53344
307,026	96,99287
307,286	333,71683
307,545	98,96559
307,805	156,1744
308,065	527,03791
308,324	-96,33657
308,584	77,2656
308,843	49,64735
309,103	91,07469
309,362	150,25626
309,622	221,27364
309,881	162,09253
310,14	381,06101
310,4	523,09261
310,659	457,99496
310,919	221,27364
311,178	195,62854
311,437	377,11567
311,697	85,15651
311,956	213,38285
312,215	158,14711
312,475	8,21978
312,734	272,56366
312,993	55,56555
313,252	308,07199
313,512	201,54664
313,771	248,89137
314,03	499,42076
314,289	363,30697
314,548	288,34515
314,808	404,73304
315,067	400,78771
315,326	-37,15353
315,585	292,29052
315,844	341,60754
316,103	546,76442
316,362	67,40195
316,621	333,71683
316,88	390,92436
317,139	171,95607
317,398	-9,53496
317,657	132,50183
317,916	108,82921
318,175	-9,53496
318,434	185,76502
318,693	315,96272
318,952	158,14711
319,211	173,92878
319,47	169,98336
319,729	160,11982
319,987	91,07469
320,246	-118,03715
320,505	607,91646
320,764	-17,42597
321,023	124,61096
321,281	396,84237
321,54	406,70571
321,799	158,14711
322,058	-50,96286
322,316	308,07199
322,575	148,28355
322,834	89,10197
323,092	75,29287
323,351	365,27964
323,609	315,96272
323,868	213,38285
324,127	112,77465
324,385	29,91996
324,644	171,95607
324,902	406,70571
325,161	493,5028
325,419	231,13712
325,678	-66,74498
325,936	359,36162
326,195	199,57394
326,453	491,53014
326,712	187,73772
326,97	215,35554
327,228	112,77465
327,487	290,31784
327,745	140,39269
328,004	596,08059
328,262	313,99004
328,52	353,44359
328,779	75,29287
329,037	209,43745
329,295	-5,58946
329,553	185,76502
329,812	205,49204
330,07	124,61096
330,328	-127,90107
330,586	219,30094
330,844	175,90149
331,103	20,05625
331,361	308,07199
331,619	110,80193
331,877	150,25626
332,135	85,15651
332,393	341,60754
332,651	481,66686
332,909	229,16443
333,167	63,45649
333,425	122,63825
333,683	140,39269
333,941	371,19766
334,199	292,29052
334,457	276,50903
334,715	223,24634
334,973	288,34515
335,231	205,49204
335,489	75,29287
335,747	146,31084
336,005	333,71683
336,262	-88,44547
336,52	312,01735
336,778	144,33812
337,036	432,35036
337,294	349,49824
337,551	217,32824
337,809	242,97329
338,067	168,01066
338,325	173,92878
338,582	69,37468
338,84	144,33812
339,098	335,68951
339,355	132,50183
339,613	434,32302
339,871	304,12663
340,128	219,30094
340,386	207,46475
340,643	603,97117
340,901	442,21367
341,159	353,44359
341,416	355,41627
341,674	175,90149
341,931	381,06101
342,189	173,92878
342,446	24,00174
342,703	237,05521
342,961	534,92852
343,218	235,08251
343,476	110,80193
343,733	-102,2549
343,99	91,07469
344,248	489,55749
344,505	386,97902
344,762	603,97117
345,02	166,03795
345,277	254,80945
345,534	339,63486
345,792	158,14711
346,049	81,21106
346,306	47,67461
346,563	37,81092
346,82	185,76502
347,078	304,12663
347,335	215,35554
347,592	548,73707
347,849	450,10432
348,106	215,35554
348,363	65,42922
348,62	164,06524
348,877	321,88076
349,135	284,39978
349,392	321,88076
349,649	254,80945
349,906	110,80193
350,163	347,52557
350,42	126,58368
350,676	347,52557
350,933	128,5564
351,19	296,23589
351,447	126,58368
351,704	71,34741
351,961	386,97902
352,218	527,03791
352,475	440,24101
352,732	146,31084
352,988	154,20169
353,245	363,30697
353,502	-19,39872
353,759	308,07199
354,015	290,31784
354,272	329,77147
354,529	51,62008
354,786	96,99287
355,042	655,25984
355,299	209,43745
355,556	434,32302
355,812	463,91294
356,069	65,42922
356,325	268,61828
356,582	262,70021
356,839	162,09253
357,095	355,41627
357,352	617,77967
357,608	177,87419
357,865	29,91996
358,121	345,55289
358,378	390,92436
358,634	452,07698
358,891	187,73772
359,147	300,18126
359,404	209,43745
359,66	345,55289
359,916	262,70021
360,173	461,94028
360,429	288,34515
360,685	219,30094
360,942	418,5417
361,198	317,9354
361,454	416,56904
361,711	298,20858
361,967	315,96272
362,223	272,56366
362,479	487,58483
362,735	426,43236
362,992	134,47455
363,248	260,72752
363,504	266,64559
363,76	454,04964
364,016	173,92878
364,272	351,47092
364,528	79,23833
364,785	91,07469
365,041	456,0223
365,297	284,39978
365,553	207,46475
365,809	442,21367
366,065	302,15394
366,321	193,65583
366,577	414,59637
366,833	148,28355
367,089	244,94599
367,344	440,24101
367,6	239,0279
367,856	404,73304
368,112	268,61828
368,368	134,47455
368,624	106,85648
368,88	148,28355
369,135	274,53634
369,391	296,23589
369,647	221,27364
369,903	554,65501
370,158	241,0006
370,414	454,04964
370,67	73,32014
370,926	197,60124
371,181	266,64559
371,437	479,6942
371,693	231,13712
371,948	471,80357
372,204	398,81504
372,459	146,31084
372,715	296,23589
372,971	396,84237
373,226	146,31084
373,482	270,59097
373,737	621,72495
373,993	262,70021
374,248	211,41015
374,504	242,97329
374,759	337,66219
375,015	465,8856
375,27	345,55289
375,525	343,58022
375,781	473,77623
376,036	438,26834
376,291	331,74415
376,547	201,54664
376,802	278,48172
377,057	367,25231
377,313	207,46475
377,568	402,76037
377,823	191,68313
378,079	345,55289
378,334	310,04467
378,589	392,89703
378,844	268,61828
379,099	605,94381
379,354	-58,85392
379,61	148,28355
379,865	532,95587
380,12	181,81961
380,375	209,43745
380,63	495,47545
380,885	457,99496
381,14	373,17033
381,395	150,25626
381,65	175,90149
381,905	-3,61671
382,16	596,08059
382,415	321,88076
382,67	138,41998
382,925	53,59282
383,18	246,91868
383,435	479,6942
383,69	288,34515
383,945	381,06101
384,2	296,23589
384,454	203,51934
384,709	280,45441
384,964	341,60754
385,219	353,44359
385,474	325,82612
385,728	312,01735
385,983	586,21737
386,238	420,51437
386,493	323,85344
386,747	329,77147
387,002	369,22498
387,257	231,13712
387,511	527,03791
387,766	201,54664
388,02	390,92436
388,275	529,01056
388,53	215,35554
388,784	414,59637
389,039	191,68313
389,293	467,85825
389,548	465,8856
389,802	246,91868
390,057	144,33812
390,311	700,6305
390,566	306,09931
390,82	55,56555
391,075	534,92852
391,329	187,73772
391,583	327,7988
391,838	8,21978
392,092	288,34515
392,346	280,45441
392,601	319,90808
392,855	546,76442
393,109	355,41627
393,364	294,26321
393,618	242,97329
393,872	77,2656
394,126	424,4597
394,381	394,8697
394,635	704,57577
394,889	394,8697
395,143	225,21903
395,397	315,96272
395,651	749,94633
395,905	179,8469
396,16	690,76732
396,414	578,32678
396,668	355,41627
396,922	394,8697
397,176	225,21903
397,43	495,47545
397,684	286,37247
397,938	276,50903
398,192	493,5028
398,446	487,58483
398,7	248,89137
398,954	321,88076
399,207	485,61217
399,461	669,06831
399,715	430,37769
399,969	235,08251
400,223	288,34515
400,477	653,2872
400,731	359,36162
400,984	428,40503
401,238	465,8856
401,492	404,73304
401,746	517,17465
401,999	436,29568
402,253	558,60031
402,507	390,92436
402,76	313,99004
403,014	408,67837
403,268	294,26321
403,521	588,19001
403,775	357,38894
404,029	469,83091
404,282	485,61217
404,536	665,12304
404,789	673,01359
405,043	554,65501
405,296	901,83858
405,55	333,71683
405,803	601,99852
406,057	649,34192
406,31	751,91896
406,564	700,6305
406,817	558,60031
407,07	724,30211
407,324	495,47545
407,577	759,80948
407,83	746,00107
408,084	623,6976
408,337	888,03022
408,59	607,91646
408,844	661,17776
409,097	609,8891
409,35	895,92071
409,603	479,6942
409,857	742,0558
410,11	891,97547
410,363	897,89333
410,616	921,5648
410,869	663,1504
411,123	1057,67545
411,376	757,83685
411,629	915,64693
411,882	797,28944
412,135	627,64288
412,388	927,48266
412,641	1116,85388
412,894	931,4279
413,147	1519,26581
413,4	1209,56664
413,653	874,22186
413,906	929,45528
414,159	974,82553
414,412	976,79815
414,665	1055,70284
414,918	1235,21057
415,17	1223,37491
415,423	1241,1284
415,676	1085,29206
415,929	1010,33266
416,182	1529,12881
416,435	1467,97814
416,687	1544,90962
416,94	1110,93604
417,193	1538,99182
417,446	1625,78621
417,698	1677,07374
417,951	1558,71783
418,204	1811,2101
418,456	1653,40258
418,709	1759,92272
418,962	1797,40197
419,214	2018,33146
419,467	1967,0444
419,719	2026,22177
419,972	1965,07182
420,225	2170,21945
420,477	2422,70584
420,73	2136,68583
420,982	2489,77181
421,235	2391,14527
421,487	2178,1097
421,74	2347,74936
421,992	2773,81143
422,244	2460,18393
422,497	2525,27718
422,749	2864,54447
423,002	2767,89402
423,254	2732,3895
423,506	3089,39982
423,759	3326,08079
424,011	3306,35778
424,263	3381,30483
424,515	3245,21594
424,768	3253,10525
425,02	3568,66717
425,272	3385,24938
425,524	3848,70838
425,776	3986,74865
426,029	4258,8668
426,281	4219,43101
426,533	4036,04729
426,785	4126,75468
427,037	4258,8668
427,289	4347,59517
427,541	4469,83805
427,793	4668,96203
428,045	4446,17861
428,297	4848,35511
428,549	4923,2618
428,801	5067,15326
429,053	5557,87133
429,305	5280,01268
429,557	5737,17171
429,809	5609,10224
430,061	5646,53909
430,313	5784,45602
430,565	6064,188
430,817	6044,4905
431,069	5983,42634
431,32	6278,87081
431,572	6654,96483
431,824	6570,30528
432,076	6528,95758
432,328	7048,64209
432,579	7019,12151
432,831	7274,93724
433,083	7259,19668
433,334	7333,96202
433,586	7534,61837
433,838	7837,48541
434,089	8220,83181
434,341	8307,30566
434,593	8254,24327
434,844	8421,27954
435,096	8505,76671
435,347	8611,85379
435,599	8729,71098
435,851	8969,29652
436,102	8904,49828
436,354	9405,05986
436,605	9446,26673
436,856	10097,39467
437,108	10260,07633
437,359	10463,86029
437,611	10262,0361
437,862	10781,16228
438,114	10749,83096
438,365	11205,93634
438,616	11722,3127
438,868	11540,45788
439,119	12040,91404
439,37	12263,63804
439,621	12921,55124
439,873	13081,52615
440,124	13407,19511
440,375	13528,05671
440,626	13678,12493
440,878	13668,38138
441,129	14387,03265
441,38	14054,1051
441,631	14951,23682
441,882	15866,52576
442,133	15530,48438
442,385	15680,07264
442,636	15882,06121
442,887	16869,8057
443,138	16580,80098
443,389	16437,22677
443,64	17608,32136
443,891	17368,03781
444,142	17916,32932
444,393	18464,29155
444,644	18559,13758
444,895	19197,68237
445,146	19615,45702
445,396	18458,48437
445,647	18832,01457
445,898	19650,26577
446,149	19899,7044
446,4	19791,42604
446,651	19851,36679
446,902	19290,53274
447,152	20466,11837
447,403	20589,81766
447,654	20543,43127
447,905	19812,69561
448,155	20607,2123
448,406	20185,83367
448,657	20877,77876
448,907	20193,56623
449,158	20705,77937
449,409	18522,36158
449,659	18942,3074
449,91	18553,33093
450,16	17912,45566
450,411	18754,60962
450,662	18299,74175
450,912	17100,54337
451,163	16706,89049
451,413	16344,08243
451,664	16920,2248
451,914	16239,28064
452,165	15221,48716
452,415	15161,22535
452,665	14733,39761
452,916	14914,28724
453,166	13758,01603
453,417	12966,42662
453,667	13452,03372
453,917	12620,99343
454,168	12332,00141
454,418	11536,54642
454,668	11839,60908
454,918	10988,69224
455,169	10900,59841
455,419	10610,77929
455,669	10179,72062
455,919	10156,19999
456,17	9505,12942
456,42	9830,74429
456,67	9053,72193
456,92	8947,69775
457,17	8873,07889
457,42	8539,16608
457,67	9169,54532
457,92	8462,54187
458,17	8185,45346
458,421	8305,34045
458,671	7925,96558
458,921	8126,48612
459,171	7784,39291
459,421	7760,7952
459,67	7512,98107
459,92	7658,53109
460,17	7373,30983
460,42	7261,16426
460,67	7426,42673
460,92	7050,6101
461,17	7166,71567
461,42	6704,1825
