Data from Philips_4000K_7,3W_1535Lumen_250ms_1__0__15-23-04-612.txt Node

Date: Thu Dec 18 15:23:04 CET 2025
User: Stefan
Spectrometer: ?
Trigger mode: 0
Integration Time (sec): 2,500000E-1
Scans to average: 1
Electric dark correction enabled: true
Nonlinearity correction enabled: true
Boxcar width: 0
XAxis mode: Wavelengths
Number of Pixels in Spectrum: 3648
>>>>>Begin Spectral Data<<<<<
195,033	-319,59345
195,299	-319,59345
195,565	-319,59345
195,831	-384,69819
196,098	-347,21353
196,364	126,2549
196,63	19,72746
196,896	-3,9455
197,162	-5,91825
197,428	33,53665
197,694	-17,75476
197,96	-63,12824
198,226	39,45487
198,492	80,88227
198,757	-100,61092
199,023	-130,20266
199,289	21,70021
199,555	254,48067
199,821	21,70021
200,087	88,77318
200,353	71,01862
200,618	51,29129
200,884	238,69912
201,15	153,8729
201,416	1,97275
201,682	187,40894
201,947	209,10866
202,213	61,15496
202,479	82,855
202,744	-25,64578
203,01	118,36402
203,276	216,99946
203,541	-15,78201
203,807	-0
204,073	102,58225
204,338	108,50042
204,604	149,92748
204,869	92,71863
205,135	-9,86375
205,401	88,77318
205,666	55,23676
205,932	147,95476
206,197	213,05406
206,463	39,45487
206,728	175,5727
206,994	-49,31889
207,259	114,41858
207,524	171,62729
207,79	25,64569
208,055	69,04589
208,321	102,58225
208,586	142,03662
208,851	51,29129
209,117	159,79103
209,382	51,29129
209,647	41,42761
209,913	226,86295
210,178	138,09119
210,443	104,55497
210,708	11,83648
210,974	41,42761
211,239	173,59999
211,504	106,5277
211,769	183,46353
212,034	228,83564
212,3	199,24516
212,565	5,91824
212,83	59,18223
213,095	-9,86375
213,36	132,17305
213,625	13,80923
213,89	47,34582
214,155	27,61843
214,42	181,49082
214,685	-7,891
214,95	181,49082
215,215	108,50042
215,48	130,20033
215,745	258,42605
216,01	-37,48233
216,275	112,44586
216,54	102,58225
216,805	27,61843
217,07	39,45487
217,335	17,75472
217,6	159,79103
217,864	120,33674
218,129	216,99946
218,394	140,06391
218,659	45,37308
218,924	171,62729
219,188	57,2095
219,453	134,14576
219,718	216,99946
219,983	94,69136
220,247	35,50939
220,512	112,44586
220,777	203,19056
221,041	185,43623
221,306	282,09831
221,571	106,5277
221,835	211,08136
222,1	98,63681
222,364	130,20033
222,629	161,76374
222,894	71,01862
223,158	-0
223,423	59,18223
223,687	63,1277
223,952	3,9455
224,216	108,50042
224,481	258,42605
224,745	71,01862
225,009	45,37308
225,274	240,67182
225,538	134,14576
225,803	197,27245
226,067	76,93681
226,331	11,83648
226,596	19,72746
226,86	175,5727
227,124	226,86295
227,389	78,90954
227,653	189,38164
227,917	71,01862
228,181	96,66408
228,446	134,14576
228,71	29,59117
228,974	37,48213
229,238	159,79103
229,502	112,44586
229,767	29,59117
230,031	149,92748
230,295	122,30946
230,559	92,71863
230,823	136,11848
231,087	157,81832
231,351	349,16947
231,615	414,2676
231,879	39,45487
232,143	179,51812
232,407	155,84561
232,671	124,28218
232,935	149,92748
233,199	108,50042
233,463	149,92748
233,727	114,41858
233,991	55,23676
234,255	207,13596
234,519	177,54541
234,783	92,71863
235,047	47,34582
235,311	179,51812
235,574	72,99135
235,838	78,90954
236,102	51,29129
236,366	112,44586
236,63	110,47314
236,893	69,04589
237,157	116,3913
237,421	130,20033
237,684	215,02676
237,948	100,60953
238,212	31,56391
238,475	169,65458
238,739	67,07316
239,003	246,5899
239,266	256,45336
239,53	147,95476
239,794	27,61843
240,057	86,80045
240,321	175,5727
240,584	130,20033
240,848	15,78197
241,111	94,69136
241,375	163,73645
241,638	341,27876
241,902	134,14576
242,165	144,00934
242,429	96,66408
242,692	94,69136
242,955	37,48213
243,219	187,40894
243,482	171,62729
243,746	1,97275
244,009	124,28218
244,272	106,5277
244,536	110,47314
244,799	173,59999
245,062	41,42761
245,325	71,01862
245,589	169,65458
245,852	124,28218
246,115	266,31681
246,378	33,53665
246,641	199,24516
246,905	86,80045
247,168	47,34582
247,431	78,90954
247,694	57,2095
247,957	116,3913
248,22	222,91755
248,483	33,53665
248,746	84,82773
249,009	-33,53681
249,273	98,63681
249,536	100,60953
249,799	1,97275
250,062	86,80045
250,324	102,58225
250,587	106,5277
250,85	35,50939
251,113	17,75472
251,376	163,73645
251,639	147,95476
251,902	248,56259
252,165	295,90711
252,428	92,71863
252,691	264,34412
252,953	71,01862
253,216	165,70916
253,479	165,70916
253,742	-90,74704
254,005	-47,34613
254,267	72,99135
254,53	104,55497
254,793	203,19056
255,055	177,54541
255,318	207,13596
255,581	147,95476
255,843	124,28218
256,106	106,5277
256,369	161,76374
256,631	116,3913
256,894	47,34582
257,157	118,36402
257,419	78,90954
257,682	177,54541
257,944	220,94486
258,207	151,90019
258,469	49,31856
258,732	140,06391
258,994	27,61843
259,257	69,04589
259,519	124,28218
259,781	183,46353
260,044	71,01862
260,306	-11,8365
260,569	138,09119
260,831	90,74591
261,093	128,22761
261,356	183,46353
261,618	220,94486
261,88	27,61843
262,143	55,23676
262,405	33,53665
262,667	84,82773
262,929	124,28218
263,192	224,89025
263,454	21,70021
263,716	-5,91825
263,978	71,01862
264,24	153,8729
264,502	67,07316
264,765	169,65458
265,027	226,86295
265,289	222,91755
265,551	130,20033
265,813	90,74591
266,075	94,69136
266,337	161,76374
266,599	-1,97275
266,861	82,855
267,123	201,21786
267,385	155,84561
267,647	35,50939
267,909	86,80045
268,171	142,03662
268,433	-0
268,695	161,76374
268,957	114,41858
269,219	65,10043
269,48	203,19056
269,742	69,04589
270,004	71,01862
270,266	59,18223
270,528	100,60953
270,789	142,03662
271,051	185,43623
271,313	207,13596
271,575	181,49082
271,836	118,36402
272,098	104,55497
272,36	213,05406
272,621	203,19056
272,883	25,64569
273,145	120,33674
273,406	80,88227
273,668	76,93681
273,93	106,5277
274,191	92,71863
274,453	140,06391
274,714	140,06391
274,976	-0
275,237	149,92748
275,499	55,23676
275,76	-0
276,022	126,2549
276,283	151,90019
276,545	199,24516
276,806	25,64569
277,068	195,29975
277,329	144,00934
277,59	53,26403
277,852	33,53665
278,113	72,99135
278,374	130,20033
278,636	175,5727
278,897	63,1277
279,158	92,71863
279,42	116,3913
279,681	122,30946
279,942	226,86295
280,203	151,90019
280,464	39,45487
280,726	51,29129
280,987	-35,50957
281,248	90,74591
281,509	167,68187
281,77	238,69912
282,031	15,78197
282,292	165,70916
282,554	165,70916
282,815	61,15496
283,076	199,24516
283,337	171,62729
283,598	61,15496
283,859	120,33674
284,12	86,80045
284,381	49,31856
284,642	47,34582
284,903	78,90954
285,164	13,80923
285,424	147,95476
285,685	199,24516
285,946	-57,20995
286,207	140,06391
286,468	63,1277
286,729	-3,9455
286,99	242,64451
287,25	-59,18271
287,511	106,5277
287,772	29,59117
288,033	102,58225
288,294	86,80045
288,554	106,5277
288,815	165,70916
289,076	177,54541
289,336	33,53665
289,597	128,22761
289,858	256,45336
290,118	13,80923
290,379	63,1277
290,639	112,44586
290,9	108,50042
291,161	-43,40061
291,421	94,69136
291,682	41,42761
291,942	65,10043
292,203	55,23676
292,463	63,1277
292,724	17,75472
292,984	53,26403
293,245	301,82516
293,505	65,10043
293,766	45,37308
294,026	889,67407
294,286	86,80045
294,547	262,37143
294,807	69,04589
295,067	177,54541
295,328	134,14576
295,588	57,2095
295,848	179,51812
296,109	165,70916
296,369	74,96408
296,629	215,02676
296,889	226,86295
297,15	102,58225
297,41	250,53528
297,67	201,21786
297,93	41,42761
298,19	7,89099
298,45	222,91755
298,711	138,09119
298,971	173,59999
299,231	120,33674
299,491	144,00934
299,751	147,95476
300,011	165,70916
300,271	108,50042
300,531	144,00934
300,791	116,3913
301,051	23,67295
301,311	108,50042
301,571	126,2549
301,831	88,77318
302,091	51,29129
302,351	-41,42785
302,61	288,01637
302,87	-25,64578
303,13	100,60953
303,39	-31,56405
303,65	149,92748
303,91	51,29129
304,169	74,96408
304,429	106,5277
304,689	159,79103
304,949	404,40426
305,209	224,89025
305,468	35,50939
305,728	31,56391
305,988	69,04589
306,247	61,15496
306,507	106,5277
306,767	256,45336
307,026	116,3913
307,286	169,65458
307,545	31,56391
307,805	-7,891
308,065	232,78104
308,324	27,61843
308,584	71,01862
308,843	72,99135
309,103	37,48213
309,362	3,9455
309,622	39,45487
309,881	132,17305
310,14	187,40894
310,4	288,01637
310,659	169,65458
310,919	112,44586
311,178	122,30946
311,437	228,83564
311,697	63,1277
311,956	102,58225
312,215	92,71863
312,475	78,90954
312,734	159,79103
312,993	-5,91825
313,252	116,3913
313,512	193,32705
313,771	120,33674
314,03	226,86295
314,289	222,91755
314,548	153,8729
314,808	236,72643
315,067	163,73645
315,326	47,34582
315,585	151,90019
315,844	213,05406
316,103	203,19056
316,362	31,56391
316,621	218,97216
316,88	167,68187
317,139	108,50042
317,398	-15,78201
317,657	116,3913
317,916	59,18223
318,175	88,77318
318,434	126,2549
318,693	84,82773
318,952	67,07316
319,211	59,18223
319,47	33,53665
319,729	96,66408
319,987	59,18223
320,246	11,83648
320,505	319,5793
320,764	21,70021
321,023	61,15496
321,281	142,03662
321,54	272,23488
321,799	82,855
322,058	-39,45509
322,316	201,21786
322,575	100,60953
322,834	114,41858
323,092	90,74591
323,351	155,84561
323,609	220,94486
323,868	252,50797
324,127	51,29129
324,385	71,01862
324,644	67,07316
324,902	155,84561
325,161	155,84561
325,419	51,29129
325,678	9,86374
325,936	82,855
326,195	19,72746
326,453	220,94486
326,712	149,92748
326,97	187,40894
327,228	55,23676
327,487	142,03662
327,745	41,42761
328,004	317,60662
328,262	165,70916
328,52	92,71863
328,779	136,11848
329,037	128,22761
329,295	45,37308
329,553	124,28218
329,812	110,47314
330,07	88,77318
330,328	-25,64578
330,586	94,69136
330,844	122,30946
331,103	49,31856
331,361	84,82773
331,619	55,23676
331,877	175,5727
332,135	-0
332,393	195,29975
332,651	268,2895
332,909	104,55497
333,167	17,75472
333,425	53,26403
333,683	39,45487
333,941	183,46353
334,199	203,19056
334,457	120,33674
334,715	63,1277
334,973	80,88227
335,231	92,71863
335,489	71,01862
335,747	13,80923
336,005	159,79103
336,262	-53,26442
336,52	138,09119
336,778	195,29975
337,036	185,43623
337,294	100,60953
337,551	17,75472
337,809	153,8729
338,067	90,74591
338,325	71,01862
338,582	63,1277
338,84	92,71863
339,098	256,45336
339,355	86,80045
339,613	151,90019
339,871	96,66408
340,128	110,47314
340,386	118,36402
340,643	155,84561
340,901	282,09831
341,159	159,79103
341,416	92,71863
341,674	147,95476
341,931	134,14576
342,189	102,58225
342,446	45,37308
342,703	114,41858
342,961	260,39874
343,218	147,95476
343,476	80,88227
343,733	-23,67302
343,99	63,1277
344,248	313,66126
344,505	189,38164
344,762	266,31681
345,02	120,33674
345,277	92,71863
345,534	145,98205
345,792	1,97275
346,049	63,1277
346,306	13,80923
346,563	43,40035
346,82	31,56391
347,078	199,24516
347,335	80,88227
347,592	220,94486
347,849	209,10866
348,106	41,42761
348,363	29,59117
348,62	80,88227
348,877	144,00934
349,135	161,76374
349,392	215,02676
349,649	43,40035
349,906	37,48213
350,163	159,79103
350,42	-19,72752
350,676	132,17305
350,933	19,72746
351,19	78,90954
351,447	72,99135
351,704	74,96408
351,961	157,81832
352,218	216,99946
352,475	167,68187
352,732	37,48213
352,988	27,61843
353,245	151,90019
353,502	67,07316
353,759	136,11848
354,015	177,54541
354,272	201,21786
354,529	25,64569
354,786	71,01862
355,042	301,82516
355,299	43,40035
355,556	142,03662
355,812	175,5727
356,069	17,75472
356,325	112,44586
356,582	185,43623
356,839	211,08136
357,095	203,19056
357,352	191,35434
357,608	88,77318
357,865	19,72746
358,121	145,98205
358,378	67,07316
358,634	254,48067
358,891	25,64569
359,147	157,81832
359,404	185,43623
359,66	169,65458
359,916	183,46353
360,173	151,90019
360,429	171,62729
360,685	114,41858
360,942	161,76374
361,198	207,13596
361,454	222,91755
361,711	138,09119
361,967	149,92748
362,223	177,54541
362,479	211,08136
362,735	234,75373
362,992	19,72746
363,248	-1,97275
363,504	220,94486
363,76	248,56259
364,016	74,96408
364,272	303,79784
364,528	185,43623
364,785	124,28218
365,041	161,76374
365,297	145,98205
365,553	118,36402
365,809	232,78104
366,065	252,50797
366,321	114,41858
366,577	232,78104
366,833	69,04589
367,089	130,20033
367,344	199,24516
367,6	118,36402
367,856	185,43623
368,112	-0
368,368	67,07316
368,624	49,31856
368,88	41,42761
369,135	177,54541
369,391	96,66408
369,647	126,2549
369,903	329,44269
370,158	41,42761
370,414	173,59999
370,67	49,31856
370,926	80,88227
371,181	122,30946
371,437	238,69912
371,693	140,06391
371,948	147,95476
372,204	215,02676
372,459	19,72746
372,715	57,2095
372,971	248,56259
373,226	161,76374
373,482	144,00934
373,737	220,94486
373,993	76,93681
374,248	19,72746
374,504	94,69136
374,759	167,68187
375,015	262,37143
375,27	189,38164
375,525	165,70916
375,781	246,5899
376,036	175,5727
376,291	140,06391
376,547	144,00934
376,802	92,71863
377,057	167,68187
377,313	76,93681
377,568	149,92748
377,823	128,22761
378,079	118,36402
378,334	84,82773
378,589	138,09119
378,844	167,68187
379,099	286,04369
379,354	29,59117
379,61	94,69136
379,865	311,68857
380,12	144,00934
380,375	163,73645
380,63	201,21786
380,885	278,15294
381,14	102,58225
381,395	-5,91825
381,65	118,36402
381,905	11,83648
382,16	278,15294
382,415	124,28218
382,67	116,3913
382,925	76,93681
383,18	74,96408
383,435	246,5899
383,69	114,41858
383,945	145,98205
384,2	138,09119
384,454	71,01862
384,709	218,97216
384,964	110,47314
385,219	110,47314
385,474	106,5277
385,728	147,95476
385,983	303,79784
386,238	120,33674
386,493	215,02676
386,747	82,855
387,002	224,89025
387,257	142,03662
387,511	140,06391
387,766	120,33674
388,02	216,99946
388,275	315,63394
388,53	100,60953
388,784	142,03662
389,039	108,50042
389,293	244,6172
389,548	144,00934
389,802	106,5277
390,057	132,17305
390,311	331,41537
390,566	92,71863
390,82	72,99135
391,075	260,39874
391,329	145,98205
391,583	140,06391
391,838	106,5277
392,092	108,50042
392,346	120,33674
392,601	240,67182
392,855	284,071
393,109	213,05406
393,364	130,20033
393,618	171,62729
393,872	74,96408
394,126	124,28218
394,381	242,64451
394,635	343,25144
394,889	130,20033
395,143	102,58225
395,397	126,2549
395,651	327,47002
395,905	94,69136
396,16	307,74321
396,414	187,40894
396,668	112,44586
396,922	197,27245
397,176	163,73645
397,43	234,75373
397,684	197,27245
397,938	116,3913
398,192	254,48067
398,446	264,34412
398,7	71,01862
398,954	175,5727
399,207	209,10866
399,461	297,87979
399,715	284,071
399,969	183,46353
400,223	136,11848
400,477	252,50797
400,731	240,67182
400,984	211,08136
401,238	112,44586
401,492	246,5899
401,746	238,69912
401,999	149,92748
402,253	276,18025
402,507	144,00934
402,76	199,24516
403,014	195,29975
403,268	199,24516
403,521	325,49734
403,775	250,53528
404,029	282,09831
404,282	232,78104
404,536	341,27876
404,789	380,73223
405,043	398,48626
405,296	426,10359
405,55	161,76374
405,803	329,44269
406,057	404,40426
406,31	351,14214
406,564	353,11482
406,817	268,2895
407,07	390,59558
407,324	329,44269
407,577	355,08749
407,83	331,41537
408,084	341,27876
408,337	402,4316
408,59	327,47002
408,844	333,38805
409,097	270,26219
409,35	459,63884
409,603	289,98906
409,857	430,04891
410,11	495,14668
410,363	542,49034
410,616	514,87322
410,869	347,19679
411,123	603,64239
411,376	402,4316
411,629	489,22871
411,882	404,40426
412,135	388,62292
412,388	583,91595
412,641	633,23203
412,894	656,90371
413,147	940,96223
413,4	723,97333
413,653	597,72446
413,906	720,02807
414,159	708,19226
414,412	759,48071
414,665	725,94597
414,918	816,68695
415,17	842,33109
415,423	911,37292
415,676	763,42597
415,929	854,16684
416,182	895,59194
416,435	1013,94912
416,687	994,22295
416,94	907,42767
417,193	1035,64791
417,446	1069,18237
417,698	1175,70349
417,951	1114,5525
418,204	1240,79963
418,456	1146,11431
418,709	1294,06007
418,962	1276,30659
419,214	1299,97789
419,467	1367,04653
419,719	1414,38906
419,972	1457,78635
420,225	1459,75896
420,477	1649,12862
420,73	1568,25206
420,982	1655,04641
421,235	1657,01901
421,487	1678,71757
421,74	1698,44353
421,992	1870,059
422,244	1885,8397
422,497	1860,19607
422,749	2055,48165
423,002	2033,78332
423,254	2069,28966
423,506	2234,9852
423,759	2300,07948
424,011	2382,92636
424,263	2382,92636
424,515	2444,07494
424,768	2467,74528
425,02	2737,97818
425,272	2530,86598
425,524	2771,51021
425,776	2935,22346
426,029	2982,56157
426,281	3094,98823
426,533	2978,61674
426,785	3181,77233
427,037	3110,76725
427,289	3375,05928
427,541	3339,55814
427,793	3459,86648
428,045	3438,17177
428,297	3493,39448
428,549	3751,74814
428,801	3659,05832
429,053	3933,17657
429,305	4039,66249
429,557	4284,17113
429,809	4221,07418
430,061	4299,94513
430,313	4225,01778
430,565	4570,0594
430,817	4530,62856
431,069	4510,91289
431,32	4980,09696
431,572	5218,58834
431,824	5082,59301
432,076	4936,73156
432,328	5395,95723
432,579	5303,33363
432,831	5616,65536
433,083	5468,86992
433,334	5675,76545
433,586	5681,67633
433,838	5661,97331
434,089	6256,87902
434,341	6280,51197
434,593	6664,48042
434,844	6725,50947
435,096	6936,13124
435,347	7048,31409
435,599	6926,29004
435,851	7158,51658
436,102	7168,35548
436,354	7467,40992
436,605	7459,54129
436,856	7744,73528
437,108	7848,95557
437,359	8016,07474
437,611	7882,38205
437,862	8000,3473
438,114	8248,01967
438,365	8619,3841
438,616	8968,96927
438,868	8407,19746
439,119	9031,79845
439,37	9029,83512
439,621	9577,39282
439,873	9583,27819
440,124	9702,93631
440,375	9916,69854
440,626	9985,32318
440,878	9985,32318
441,129	10434,14585
441,38	10396,91921
441,631	10886,56749
441,882	11360,17831
442,133	11051,00286
442,385	11477,54545
442,636	11373,87232
442,887	11997,59688
443,138	11788,45766
443,389	11876,42235
443,64	12538,67114
443,891	12610,90712
444,142	12966,10145
444,393	13449,75938
444,644	13771,33018
444,895	14135,56908
445,146	14538,51003
445,396	13882,37816
445,647	14193,98275
445,898	14793,37574
446,149	15450,4959
446,4	15300,85572
446,651	15635,07016
446,902	15211,44391
447,152	16349,58087
447,403	16980,01244
447,654	17214,59468
447,905	16834,575
448,155	17584,74816
448,406	17962,48911
448,657	18251,01687
448,907	18816,2115
449,158	19493,29726
449,409	17786,22999
449,659	18206,48473
449,91	18549,13722
450,16	18467,84037
450,411	19441,07789
450,662	19504,90129
450,912	18878,13247
451,163	18856,84752
451,413	18835,56217
451,664	19738,89538
451,914	19578,39121
452,165	18750,4167
452,415	19152,8667
452,665	18806,53604
452,916	19682,81764
453,166	18465,90465
453,417	17563,43485
453,667	18357,49858
453,917	17904,3855
454,168	17588,62325
454,418	16613,45697
454,668	17162,25587
454,918	16318,53032
455,169	16238,95715
455,419	15642,84059
455,669	15565,13226
455,919	15250,32012
456,17	14612,45127
456,42	14787,54028
456,67	13911,59791
456,92	13841,46813
457,17	13453,65825
457,42	13059,74349
457,67	13447,80994
457,92	12474,237
458,17	11798,23216
458,421	11944,83036
458,671	11555,77753
458,921	11366,04721
459,171	11152,77412
459,421	10794,54288
459,67	10361,64986
459,92	10383,20359
460,17	10142,15254
460,42	9863,75466
460,67	10075,50467
460,92	9612,70428
461,17	9442,01534
461,42	9239,88084
461,67	9320,34916
461,919	8688,13568
462,169	8931,66188
462,419	8523,12146
462,669	8631,17053
462,918	8324,66482
463,168	8739,20423
463,418	8519,19212
463,668	7913,84106
463,917	8314,83893
464,167	8259,81171
464,417	8029,83602
464,666	7727,03625
464,916	7896,14551
