Data from Philips_4000K_7,3W_1535Lumen_250ms_1__1__15-25-36-357.txt Node

Date: Thu Dec 18 15:25:36 CET 2025
User: Stefan
Spectrometer: ?
Trigger mode: 0
Integration Time (sec): 2,500000E-1
Scans to average: 1
Electric dark correction enabled: true
Nonlinearity correction enabled: true
Boxcar width: 0
XAxis mode: Wavelengths
Number of Pixels in Spectrum: 3648
>>>>>Begin Spectral Data<<<<<
195,033	-344,74745
195,299	-344,74745
195,565	-344,74745
195,831	-326,99167
196,098	-358,55754
196,364	150,42065
196,63	24,16613
196,896	-27,12535
197,162	41,92079
197,428	77,43
197,694	63,62088
197,96	-90,25384
198,226	30,08436
198,492	-66,58059
198,757	-72,49889
199,023	-113,92718
199,289	-17,26157
199,555	262,8646
199,821	73,48454
200,087	73,48454
200,353	148,44794
200,618	176,06588
200,884	221,43803
201,15	83,34818
201,416	75,45727
201,682	73,48454
201,947	229,32882
202,213	114,91176
202,479	34,02984
202,744	6,41143
203,01	91,23909
203,276	126,74808
203,541	128,72079
203,807	174,09317
204,073	93,21181
204,338	152,39337
204,604	114,91176
204,869	122,80264
205,135	59,67541
205,401	105,04816
205,666	118,8572
205,932	207,62914
206,197	136,61166
206,463	85,32091
206,728	146,47523
206,994	83,34818
207,259	158,3115
207,524	170,14776
207,79	144,50252
208,055	132,66623
208,321	132,66623
208,586	142,5298
208,851	-9,37056
209,117	185,92941
209,382	10,35692
209,647	97,15726
209,913	379,25273
210,178	243,13768
210,443	136,61166
210,708	67,56634
210,974	47,83901
211,239	197,76563
211,504	183,9567
211,769	245,11038
212,034	164,22963
212,3	24,16613
212,565	-38,9619
212,83	174,09317
213,095	95,18454
213,36	124,77536
213,625	0,49319
213,89	134,63894
214,155	185,92941
214,42	178,03859
214,685	108,9936
214,95	162,25692
215,215	201,71103
215,48	231,30151
215,745	176,06588
216,01	128,72079
216,275	243,13768
216,54	207,62914
216,805	55,72995
217,07	59,67541
217,335	39,94806
217,6	219,46533
217,864	71,51181
218,129	122,80264
218,394	140,55709
218,659	32,0571
218,924	172,12046
219,188	103,07543
219,453	164,22963
219,718	243,13768
219,983	130,69351
220,247	152,39337
220,512	221,43803
220,777	353,60798
221,041	219,46533
221,306	294,4276
221,571	79,40272
221,835	189,87482
222,1	97,15726
222,364	77,43
222,629	233,27421
222,894	83,34818
223,158	43,89353
223,423	126,74808
223,687	120,82992
223,952	65,59361
224,216	77,43
224,481	266,80998
224,745	83,34818
225,009	87,29363
225,274	229,32882
225,538	211,57454
225,803	223,41073
226,067	128,72079
226,331	87,29363
226,596	43,89353
226,86	254,97384
227,124	264,83729
227,389	150,42065
227,653	197,76563
227,917	172,12046
228,181	110,96632
228,446	160,28421
228,71	32,0571
228,974	185,92941
229,238	302,31833
229,502	79,40272
229,767	87,29363
230,031	142,5298
230,295	231,30151
230,559	126,74808
230,823	158,3115
231,087	134,63894
231,351	430,54208
231,615	367,4167
231,879	114,91176
232,143	189,87482
232,407	221,43803
232,671	85,32091
232,935	128,72079
233,199	41,92079
233,463	146,47523
233,727	130,69351
233,991	61,64815
234,255	185,92941
234,519	237,2196
234,783	81,37545
235,047	-17,26157
235,311	180,01129
235,574	18,2479
235,838	122,80264
236,102	114,91176
236,366	274,70074
236,63	37,97532
236,893	122,80264
237,157	183,9567
237,421	105,04816
237,684	144,50252
237,948	89,26636
238,212	144,50252
238,475	225,38343
238,739	201,71103
239,003	185,92941
239,266	256,94653
239,53	174,09317
239,794	73,48454
240,057	101,10271
240,321	112,93904
240,584	160,28421
240,848	122,80264
241,111	47,83901
241,375	124,77536
241,638	320,07247
241,902	154,36608
242,165	231,30151
242,429	107,02088
242,692	180,01129
242,955	81,37545
243,219	254,97384
243,482	134,63894
243,746	37,97532
244,009	164,22963
244,272	118,8572
244,536	181,984
244,799	245,11038
245,062	140,55709
245,325	152,39337
245,589	32,0571
245,852	83,34818
246,115	225,38343
246,378	-9,37056
246,641	107,02088
246,905	154,36608
247,168	97,15726
247,431	203,68374
247,694	112,93904
247,957	183,9567
248,22	187,90211
248,483	99,12999
248,746	148,44794
249,009	16,27516
249,273	150,42065
249,536	73,48454
249,799	-21,20708
250,062	108,9936
250,324	150,42065
250,587	174,09317
250,85	8,38418
251,113	122,80264
251,376	180,01129
251,639	122,80264
251,902	126,74808
252,165	379,25273
252,428	156,33879
252,691	345,71728
252,953	176,06588
253,216	178,03859
253,479	181,984
253,742	61,64815
254,005	30,08436
254,267	150,42065
254,53	207,62914
254,793	268,78267
255,055	191,84752
255,318	191,84752
255,581	185,92941
255,843	39,94806
256,106	122,80264
256,369	146,47523
256,631	103,07543
256,894	57,70268
257,157	181,984
257,419	-68,55335
257,682	262,8646
257,944	260,89191
258,207	138,58437
258,469	110,96632
258,732	130,69351
258,994	67,56634
259,257	39,94806
259,519	89,26636
259,781	201,71103
260,044	61,64815
260,306	81,37545
260,569	32,0571
260,831	170,14776
261,093	164,22963
261,356	223,41073
261,618	170,14776
261,88	118,8572
262,143	93,21181
262,405	-9,37056
262,667	197,76563
262,929	120,82992
263,192	312,18174
263,454	-80,38998
263,716	14,30242
263,978	55,72995
264,24	193,82022
264,502	41,92079
264,765	187,90211
265,027	156,33879
265,289	166,20234
265,551	124,77536
265,813	118,8572
266,075	116,88448
266,337	136,61166
266,599	51,78448
266,861	168,17505
267,123	138,58437
267,385	227,35612
267,647	63,62088
267,909	73,48454
268,171	154,36608
268,433	45,86627
268,695	215,51994
268,957	170,14776
269,219	55,72995
269,48	223,41073
269,742	136,61166
270,004	107,02088
270,266	81,37545
270,528	118,8572
270,789	154,36608
271,051	162,25692
271,313	266,80998
271,575	158,3115
271,836	134,63894
272,098	136,61166
272,36	262,8646
272,621	136,61166
272,883	47,83901
273,145	107,02088
273,406	75,45727
273,668	47,83901
273,93	28,11162
274,191	103,07543
274,453	69,53908
274,714	148,44794
274,976	158,3115
275,237	93,21181
275,499	71,51181
275,76	112,93904
276,022	172,12046
276,283	185,92941
276,545	61,64815
276,806	39,94806
277,068	174,09317
277,329	223,41073
277,59	81,37545
277,852	57,70268
278,113	83,34818
278,374	185,92941
278,636	217,49263
278,897	55,72995
279,158	134,63894
279,42	85,32091
279,681	235,24691
279,942	239,1923
280,203	166,20234
280,464	122,80264
280,726	148,44794
280,987	-17,26157
281,248	150,42065
281,509	99,12999
281,77	140,55709
282,031	112,93904
282,292	160,28421
282,554	181,984
282,815	73,48454
283,076	168,17505
283,337	122,80264
283,598	-42,90742
283,859	166,20234
284,12	134,63894
284,381	181,984
284,642	81,37545
284,903	136,61166
285,164	4,43868
285,424	205,65644
285,685	217,49263
285,946	87,29363
286,207	170,14776
286,468	152,39337
286,729	24,16613
286,99	239,1923
287,25	43,89353
287,511	124,77536
287,772	-11,34331
288,033	134,63894
288,294	103,07543
288,554	69,53908
288,815	164,22963
289,076	168,17505
289,336	47,83901
289,597	91,23909
289,858	270,75536
290,118	97,15726
290,379	130,69351
290,639	99,12999
290,9	49,81174
291,161	36,00258
291,421	174,09317
291,682	120,82992
291,942	176,06588
292,203	87,29363
292,463	77,43
292,724	118,8572
292,984	103,07543
293,245	189,87482
293,505	142,5298
293,766	152,39337
294,026	844,79687
294,286	264,83729
294,547	166,20234
294,807	185,92941
295,067	150,42065
295,328	170,14776
295,588	140,55709
295,848	59,67541
296,109	156,33879
296,369	189,87482
296,629	148,44794
296,889	274,70074
297,15	183,9567
297,41	203,68374
297,67	142,5298
297,93	172,12046
298,19	120,82992
298,45	154,36608
298,711	85,32091
298,971	150,42065
299,231	93,21181
299,491	193,82022
299,751	148,44794
300,011	160,28421
300,271	122,80264
300,531	199,73833
300,791	176,06588
301,051	49,81174
301,311	146,47523
301,571	191,84752
301,831	225,38343
302,091	126,74808
302,351	-27,12535
302,61	377,28006
302,87	20,22065
303,13	172,12046
303,39	47,83901
303,65	136,61166
303,91	89,26636
304,169	41,92079
304,429	180,01129
304,689	130,69351
304,949	422,65142
305,209	209,60184
305,468	181,984
305,728	18,2479
305,988	45,86627
306,247	152,39337
306,507	290,48223
306,767	292,45491
307,026	79,40272
307,286	172,12046
307,545	95,18454
307,805	120,82992
308,065	174,09317
308,324	-35,01638
308,584	168,17505
308,843	122,80264
309,103	71,51181
309,362	150,42065
309,622	73,48454
309,881	130,69351
310,14	223,41073
310,4	213,54724
310,659	245,11038
310,919	130,69351
311,178	191,84752
311,437	229,32882
311,697	43,89353
311,956	114,91176
312,215	73,48454
312,475	71,51181
312,734	209,60184
312,993	116,88448
313,252	140,55709
313,512	162,25692
313,771	205,65644
314,03	239,1923
314,289	227,35612
314,548	270,75536
314,808	254,97384
315,067	185,92941
315,326	8,38418
315,585	160,28421
315,844	209,60184
316,103	288,50954
316,362	41,92079
316,621	221,43803
316,88	288,50954
317,139	101,10271
317,398	61,64815
317,657	55,72995
317,916	99,12999
318,175	105,04816
318,434	124,77536
318,693	105,04816
318,952	150,42065
319,211	61,64815
319,47	8,38418
319,729	41,92079
319,987	114,91176
320,246	20,22065
320,505	322,04515
320,764	114,91176
321,023	67,56634
321,281	195,79293
321,54	180,01129
321,799	81,37545
322,058	30,08436
322,316	191,84752
322,575	77,43
322,834	112,93904
323,092	150,42065
323,351	215,51994
323,609	146,47523
323,868	199,73833
324,127	103,07543
324,385	142,5298
324,644	138,58437
324,902	140,55709
325,161	209,60184
325,419	146,47523
325,678	-50,79846
325,936	128,72079
326,195	152,39337
326,453	203,68374
326,712	116,88448
326,97	124,77536
327,228	138,58437
327,487	213,54724
327,745	101,10271
328,004	247,08307
328,262	81,37545
328,52	152,39337
328,779	59,67541
329,037	152,39337
329,295	118,8572
329,553	178,03859
329,812	114,91176
330,07	215,51994
330,328	-31,07086
330,586	118,8572
330,844	105,04816
331,103	6,41143
331,361	241,16499
331,619	118,8572
331,877	95,18454
332,135	91,23909
332,393	247,08307
332,651	231,30151
332,909	178,03859
333,167	79,40272
333,425	101,10271
333,683	95,18454
333,941	241,16499
334,199	215,51994
334,457	103,07543
334,715	172,12046
334,973	138,58437
335,231	61,64815
335,489	63,62088
335,747	138,58437
336,005	105,04816
336,262	18,2479
336,52	195,79293
336,778	103,07543
337,036	215,51994
337,294	225,38343
337,551	87,29363
337,809	116,88448
338,067	51,78448
338,325	146,47523
338,582	132,66623
338,84	99,12999
339,098	254,97384
339,355	57,70268
339,613	191,84752
339,871	191,84752
340,128	124,77536
340,386	91,23909
340,643	245,11038
340,901	221,43803
341,159	213,54724
341,416	132,66623
341,674	34,02984
341,931	209,60184
342,189	51,78448
342,446	114,91176
342,703	180,01129
342,961	241,16499
343,218	203,68374
343,476	191,84752
343,733	37,97532
343,99	81,37545
344,248	266,80998
344,505	211,57454
344,762	197,76563
345,02	97,15726
345,277	55,72995
345,534	132,66623
345,792	199,73833
346,049	95,18454
346,306	146,47523
346,563	32,0571
346,82	112,93904
347,078	118,8572
347,335	178,03859
347,592	302,31833
347,849	241,16499
348,106	39,94806
348,363	67,56634
348,62	6,41143
348,877	170,14776
349,135	128,72079
349,392	122,80264
349,649	160,28421
349,906	112,93904
350,163	227,35612
350,42	130,69351
350,676	128,72079
350,933	87,29363
351,19	213,54724
351,447	22,19339
351,704	61,64815
351,961	114,91176
352,218	185,92941
352,475	193,82022
352,732	81,37545
352,988	57,70268
353,245	290,48223
353,502	18,2479
353,759	176,06588
354,015	181,984
354,272	193,82022
354,529	57,70268
354,786	87,29363
355,042	288,50954
355,299	142,5298
355,556	195,79293
355,812	264,83729
356,069	32,0571
356,325	187,90211
356,582	189,87482
356,839	176,06588
357,095	176,06588
357,352	324,01783
357,608	144,50252
357,865	75,45727
358,121	170,14776
358,378	245,11038
358,634	276,67342
358,891	-42,90742
359,147	140,55709
359,404	187,90211
359,66	276,67342
359,916	213,54724
360,173	148,44794
360,429	172,12046
360,685	164,22963
360,942	272,72805
361,198	158,3115
361,454	243,13768
361,711	132,66623
361,967	108,9936
362,223	120,82992
362,479	264,83729
362,735	247,08307
362,992	69,53908
363,248	211,57454
363,504	87,29363
363,76	144,50252
364,016	107,02088
364,272	191,84752
364,528	77,43
364,785	55,72995
365,041	197,76563
365,297	183,9567
365,553	39,94806
365,809	227,35612
366,065	229,32882
366,321	87,29363
366,577	170,14776
366,833	71,51181
367,089	132,66623
367,344	233,27421
367,6	79,40272
367,856	223,41073
368,112	170,14776
368,368	97,15726
368,624	-5,42506
368,88	138,58437
369,135	170,14776
369,391	168,17505
369,647	162,25692
369,903	280,6188
370,158	176,06588
370,414	215,51994
370,67	36,00258
370,926	97,15726
371,181	77,43
371,437	268,78267
371,693	170,14776
371,948	251,02846
372,204	107,02088
372,459	77,43
372,715	189,87482
372,971	172,12046
373,226	93,21181
373,482	144,50252
373,737	235,24691
373,993	122,80264
374,248	93,21181
374,504	180,01129
374,759	103,07543
375,015	227,35612
375,27	211,57454
375,525	211,57454
375,781	298,37297
376,036	213,54724
376,291	251,02846
376,547	116,88448
376,802	183,9567
377,057	247,08307
377,313	16,27516
377,568	195,79293
377,823	89,26636
378,079	130,69351
378,334	158,3115
378,589	146,47523
378,844	195,79293
379,099	249,05576
379,354	69,53908
379,61	138,58437
379,865	286,53686
380,12	53,75721
380,375	168,17505
380,63	274,70074
380,885	195,79293
381,14	268,78267
381,395	93,21181
381,65	181,984
381,905	45,86627
382,16	385,17074
382,415	75,45727
382,67	65,59361
382,925	87,29363
383,18	176,06588
383,435	195,79293
383,69	176,06588
383,945	150,42065
384,2	166,20234
384,454	280,6188
384,709	144,50252
384,964	138,58437
385,219	178,03859
385,474	221,43803
385,728	203,68374
385,983	284,56417
386,238	215,51994
386,493	164,22963
386,747	185,92941
387,002	282,59148
387,257	87,29363
387,511	253,00115
387,766	61,64815
388,02	223,41073
388,275	302,31833
388,53	142,5298
388,784	213,54724
389,039	105,04816
389,293	209,60184
389,548	193,82022
389,802	197,76563
390,057	71,51181
390,311	367,4167
390,566	144,50252
390,82	101,10271
391,075	233,27421
391,329	107,02088
391,583	247,08307
391,838	107,02088
392,092	140,55709
392,346	231,30151
392,601	176,06588
392,855	331,90854
393,109	254,97384
393,364	180,01129
393,618	201,71103
393,872	99,12999
394,126	181,984
394,381	233,27421
394,635	314,15443
394,889	239,1923
395,143	128,72079
395,397	225,38343
395,651	341,77193
395,905	77,43
396,16	264,83729
396,414	245,11038
396,668	148,44794
396,922	166,20234
397,176	120,82992
397,43	235,24691
397,684	67,56634
397,938	227,35612
398,192	276,67342
398,446	268,78267
398,7	156,33879
398,954	286,53686
399,207	278,64611
399,461	331,90854
399,715	213,54724
399,969	132,66623
400,223	178,03859
400,477	320,07247
400,731	245,11038
400,984	201,71103
401,238	251,02846
401,492	270,75536
401,746	195,79293
401,999	170,14776
402,253	314,15443
402,507	128,72079
402,76	146,47523
403,014	266,80998
403,268	286,53686
403,521	357,55333
403,775	134,63894
404,029	365,44403
404,282	243,13768
404,536	351,63531
404,789	454,21403
405,043	221,43803
405,296	320,07247
405,55	199,73833
405,803	365,44403
406,057	404,89743
406,31	402,92476
406,564	400,95209
406,817	312,18174
407,07	367,4167
407,324	312,18174
407,577	320,07247
407,83	389,11608
408,084	357,55333
408,337	503,53046
408,59	448,29604
408,844	377,28006
409,097	418,70609
409,35	489,72187
409,603	306,2637
409,857	389,11608
410,11	531,1476
410,363	442,37806
410,616	497,6125
410,869	369,38937
411,123	647,53367
411,376	422,65142
411,629	560,73735
411,882	454,21403
412,135	389,11608
412,388	600,19027
412,641	594,27233
412,894	596,24498
413,147	827,04324
413,4	647,53367
413,653	647,53367
413,906	651,47895
414,159	807,31697
414,412	594,27233
414,665	734,32966
414,918	773,78228
415,17	700,79488
415,423	769,83702
415,676	801,39909
415,929	710,65806
416,182	967,09944
416,435	925,67442
416,687	1016,4149
416,94	846,7695
417,193	1073,62076
417,446	1083,48383
417,698	1057,83984
417,951	1055,86722
418,204	1152,5253
418,456	1089,40167
418,709	1152,5253
418,962	1093,3469
419,214	1233,40235
419,467	1337,95059
419,719	1266,9367
419,972	1369,51229
420,225	1335,97798
420,477	1479,97814
420,73	1485,89595
420,982	1572,69042
421,235	1643,70398
421,487	1539,1562
421,74	1639,75878
421,992	1886,33285
422,244	1681,18332
422,497	1783,75821
422,749	1913,94904
423,002	1959,31846
423,254	2024,41358
423,506	2138,82277
423,759	2261,12157
424,011	2341,99611
424,263	2367,63917
424,515	2464,29336
424,768	2434,70542
425,02	2448,51313
425,272	2444,56807
425,524	2651,68195
425,776	2801,59031
426,029	2894,29547
426,281	2967,27534
426,533	2965,30292
426,785	2864,70884
427,037	3152,68008
427,289	3063,92316
427,541	3247,35263
427,793	3272,99283
428,045	3219,73997
428,297	3600,38647
428,549	3507,6931
428,801	3655,60706
429,053	4089,45325
429,305	3819,29191
429,557	3988,88494
429,809	4140,72205
430,061	4087,48135
430,313	4170,29979
430,565	4406,91001
430,817	4231,42613
431,069	4270,86174
431,32	4627,72575
431,572	4795,2945
431,824	4771,63854
432,076	4947,08021
432,328	4915,54129
432,579	5177,69231
432,831	5477,24481
433,083	5224,99366
433,334	5439,80378
433,586	5455,56854
433,838	5688,07975
434,089	6015,10783
434,341	6022,98705
434,593	6245,55474
434,844	6162,83507
435,096	6318,42218
435,347	6588,18933
435,599	6521,24574
435,851	6773,24752
436,102	6590,15819
436,354	7070,45397
436,605	7121,61979
436,856	7253,45787
437,108	7595,75734
437,359	7808,15385
437,611	7603,62479
437,862	7963,48493
438,114	7989,04301
438,365	8234,75342
438,616	8619,87521
438,868	8293,71286
439,119	8914,4802
439,37	8753,44388
439,621	9305,13939
439,873	9571,99786
440,124	9526,87464
440,375	9550,41756
440,626	9968,16769
440,878	9740,69287
441,129	10211,24347
441,38	9981,89212
441,631	10914,46586
441,882	11043,66293
442,133	10977,11025
442,385	11090,63695
442,636	11118,03679
442,887	11927,7291
443,138	11573,86724
443,389	11693,14795
443,64	12617,25175
443,891	12439,57633
444,142	12504,01426
444,393	13224,06896
444,644	13495,08212
444,895	14036,73984
445,146	14396,92685
445,396	13578,89573
445,647	13923,77239
445,898	14614,88339
446,149	15021,4027
446,4	15419,89046
446,651	15326,60793
446,902	15264,41218
447,152	16165,68374
447,403	16930,082
447,654	17067,74656
447,905	16792,393
448,155	17335,25185
448,406	17614,29529
448,657	18162,43461
448,907	18280,5425
449,158	19056,62026
449,409	17716,97584
449,659	18131,4531
449,91	18104,34345
450,16	18065,61403
450,411	19186,2368
450,662	19271,35067
450,912	18367,66214
451,163	18598,00905
451,413	18276,67034
451,664	19288,75962
451,914	19060,48961
452,165	18528,3297
452,415	18464,45286
452,665	18199,22386
452,916	18752,8357
453,166	17654,98149
453,417	16627,52124
453,667	17623,98265
453,917	17218,95609
454,168	16802,09022
454,418	15755,98726
454,668	16697,35369
454,918	15635,55582
455,169	15528,70336
455,419	15173,05136
455,669	14955,28818
455,919	14455,3156
456,17	14038,68737
456,42	13841,95517
456,67	13483,38626
456,92	12925,61618
457,17	12476,67781
457,42	12170,03252
457,67	12769,50242
457,92	11581,68966
458,17	11180,6604
458,421	11390,01129
458,671	10759,78535
458,921	10593,31405
459,171	10608,98382
459,421	10193,60393
459,67	9654,38905
459,92	9648,5043
460,17	9460,16532
460,42	9354,20197
460,67	9452,31674
460,92	8796,65218
461,17	9010,69238
461,42	8818,25539
461,67	8914,4802
461,919	8291,74761
462,169	8564,8695
462,419	8124,68427
462,669	7914,3326
462,918	7991,00898
463,168	8205,27208
463,418	8020,49803
463,668	7501,34261
