Data from Philips_2700K_7,3W_1535Lumen_250ms_1__0__15-14-47-545.txt Node

Date: Thu Dec 18 15:14:47 CET 2025
User: Stefan
Spectrometer: ?
Trigger mode: 0
Integration Time (sec): 2,500000E-1
Scans to average: 1
Electric dark correction enabled: true
Nonlinearity correction enabled: true
Boxcar width: 0
XAxis mode: Wavelengths
Number of Pixels in Spectrum: 3648
>>>>>Begin Spectral Data<<<<<
195,033	-354,7762
195,299	-354,7762
195,565	-354,7762
195,831	-360,69482
196,098	-264,02497
196,364	132,50183
196,63	85,15651
196,896	-1,64396
197,162	-56,88115
197,428	-27,28974
197,694	-19,39872
197,96	-98,30934
198,226	8,21978
198,492	-31,23526
198,757	-54,90839
199,023	43,72914
199,289	20,05625
199,555	148,28355
199,821	89,10197
200,087	85,15651
200,353	118,69281
200,618	-43,07181
200,884	217,32824
201,15	65,42922
201,416	59,51102
201,682	104,88376
201,947	288,34515
202,213	146,31084
202,479	93,04742
202,744	16,11076
203,01	175,90149
203,276	110,80193
203,541	63,45649
203,807	102,91104
204,073	108,82921
204,338	53,59282
204,604	29,91996
204,869	45,70187
205,135	-25,31699
205,401	67,40195
205,666	59,51102
205,932	173,92878
206,197	35,83818
206,463	43,72914
206,728	197,60124
206,994	-125,92829
207,259	120,66553
207,524	59,51102
207,79	51,62008
208,055	89,10197
208,321	53,59282
208,586	171,95607
208,851	51,62008
209,117	114,74737
209,382	-52,93562
209,647	16,11076
209,913	169,98336
210,178	130,52912
210,443	83,18379
210,708	-76,60883
210,974	2,30154
211,239	63,45649
211,504	150,25626
211,769	154,20169
212,034	199,57394
212,3	96,99287
212,565	10,19253
212,83	85,15651
213,095	20,05625
213,36	108,82921
213,625	-17,42597
213,89	73,32014
214,155	39,78366
214,42	166,03795
214,685	-50,96286
214,95	181,81961
215,215	29,91996
215,48	195,62854
215,745	152,22897
216,01	-27,28974
216,275	164,06524
216,54	83,18379
216,805	-11,50771
217,07	14,13802
217,335	71,34741
217,6	59,51102
217,864	55,56555
218,129	181,81961
218,394	154,20169
218,659	22,029
218,924	130,52912
219,188	116,72009
219,453	199,57394
219,718	193,65583
219,983	98,96559
220,247	43,72914
220,512	122,63825
220,777	239,0279
221,041	162,09253
221,306	268,61828
221,571	16,11076
221,835	252,83676
222,1	33,86544
222,364	83,18379
222,629	160,11982
222,894	-13,48046
223,158	-25,31699
223,423	104,88376
223,687	98,96559
223,952	10,19253
224,216	104,88376
224,481	169,98336
224,745	61,48375
225,009	126,58368
225,274	211,41015
225,538	128,5564
225,803	237,05521
226,067	106,85648
226,331	25,97448
226,596	-43,07181
226,86	89,10197
227,124	290,31784
227,389	31,8927
227,653	164,06524
227,917	71,34741
228,181	-1,64396
228,446	71,34741
228,71	10,19253
228,974	47,67461
229,238	144,33812
229,502	59,51102
229,767	-9,53496
230,031	120,66553
230,295	120,66553
230,559	116,72009
230,823	47,67461
231,087	150,25626
231,351	353,44359
231,615	357,38894
231,879	24,00174
232,143	128,5564
232,407	164,06524
232,671	75,29287
232,935	195,62854
233,199	53,59282
233,463	116,72009
233,727	83,18379
233,991	12,16527
234,255	91,07469
234,519	189,71042
234,783	51,62008
235,047	8,21978
235,311	67,40195
235,574	59,51102
235,838	89,10197
236,102	35,83818
236,366	104,88376
236,63	55,56555
236,893	173,92878
237,157	144,33812
237,421	110,80193
237,684	112,77465
237,948	29,91996
238,212	93,04742
238,475	116,72009
238,739	124,61096
239,003	199,57394
239,266	315,96272
239,53	173,92878
239,794	79,23833
240,057	55,56555
240,321	108,82921
240,584	65,42922
240,848	29,91996
241,111	77,2656
241,375	168,01066
241,638	260,72752
241,902	112,77465
242,165	91,07469
242,429	55,56555
242,692	93,04742
242,955	73,32014
243,219	160,11982
243,482	166,03795
243,746	29,91996
244,009	217,32824
244,272	148,28355
244,536	57,53829
244,799	171,95607
245,062	35,83818
245,325	67,40195
245,589	31,8927
245,852	152,22897
246,115	233,10982
246,378	-70,69052
246,641	91,07469
246,905	25,97448
247,168	-5,58946
247,431	162,09253
247,694	124,61096
247,957	106,85648
248,22	120,66553
248,483	-17,42597
248,746	114,74737
249,009	8,21978
249,273	59,51102
249,536	69,37468
249,799	75,29287
250,062	114,74737
250,324	85,15651
250,587	55,56555
250,85	55,56555
251,113	130,52912
251,376	130,52912
251,639	154,20169
251,902	112,77465
252,165	254,80945
252,428	83,18379
252,691	201,54664
252,953	63,45649
253,216	81,21106
253,479	108,82921
253,742	-19,39872
254,005	20,05625
254,267	144,33812
254,53	199,57394
254,793	189,71042
255,055	158,14711
255,318	95,02014
255,581	140,39269
255,843	112,77465
256,106	73,32014
256,369	37,81092
256,631	93,04742
256,894	-70,69052
257,157	124,61096
257,419	-48,9901
257,682	162,09253
257,944	209,43745
258,207	57,53829
258,469	75,29287
258,732	102,91104
258,994	91,07469
259,257	0,32879
259,519	69,37468
259,781	138,41998
260,044	77,2656
260,306	-11,50771
260,569	45,70187
260,831	55,56555
261,093	63,45649
261,356	146,31084
261,618	213,38285
261,88	63,45649
262,143	-45,04457
262,405	-1,64396
262,667	-15,45322
262,929	-45,04457
263,192	175,90149
263,454	-25,31699
263,716	71,34741
263,978	148,28355
264,24	144,33812
264,502	29,91996
264,765	146,31084
265,027	195,62854
265,289	130,52912
265,551	57,53829
265,813	43,72914
266,075	-23,34423
266,337	173,92878
266,599	12,16527
266,861	29,91996
267,123	102,91104
267,385	57,53829
267,647	33,86544
267,909	51,62008
268,171	91,07469
268,433	-29,2625
268,695	144,33812
268,957	85,15651
269,219	12,16527
269,48	237,05521
269,742	6,24704
270,004	61,48375
270,266	35,83818
270,528	79,23833
270,789	187,73772
271,051	158,14711
271,313	91,07469
271,575	71,34741
271,836	116,72009
272,098	87,12924
272,36	120,66553
272,621	114,74737
272,883	18,08351
273,145	43,72914
273,406	6,24704
273,668	116,72009
273,93	12,16527
274,191	49,64735
274,453	43,72914
274,714	150,25626
274,976	67,40195
275,237	102,91104
275,499	18,08351
275,76	0,32879
276,022	77,2656
276,283	-27,28974
276,545	81,21106
276,806	-9,53496
277,068	171,95607
277,329	91,07469
277,59	67,40195
277,852	37,81092
278,113	87,12924
278,374	79,23833
278,636	173,92878
278,897	12,16527
279,158	63,45649
279,42	29,91996
279,681	168,01066
279,942	156,1744
280,203	95,02014
280,464	61,48375
280,726	35,83818
280,987	-33,20802
281,248	102,91104
281,509	37,81092
281,77	35,83818
282,031	59,51102
282,292	142,36541
282,554	175,90149
282,815	-31,23526
283,076	138,41998
283,337	158,14711
283,598	2,30154
283,859	108,82921
284,12	108,82921
284,381	83,18379
284,642	132,50183
284,903	2,30154
285,164	-58,85392
285,424	138,41998
285,685	59,51102
285,946	4,27429
286,207	124,61096
286,468	-7,56221
286,729	-11,50771
286,99	217,32824
287,25	16,11076
287,511	47,67461
287,772	6,24704
288,033	122,63825
288,294	106,85648
288,554	-9,53496
288,815	45,70187
289,076	118,69281
289,336	-15,45322
289,597	31,8927
289,858	241,0006
290,118	122,63825
290,379	57,53829
290,639	140,39269
290,9	10,19253
291,161	-23,34423
291,421	27,94722
291,682	144,33812
291,942	39,78366
292,203	53,59282
292,463	-5,58946
292,724	39,78366
292,984	25,97448
293,245	211,41015
293,505	71,34741
293,766	124,61096
294,026	708,52103
294,286	199,57394
294,547	213,38285
294,807	100,93832
295,067	162,09253
295,328	75,29287
295,588	53,59282
295,848	116,72009
296,109	55,56555
296,369	102,91104
296,629	91,07469
296,889	229,16443
297,15	95,02014
297,41	136,44726
297,67	215,35554
297,93	-7,56221
298,19	-29,2625
298,45	144,33812
298,711	69,37468
298,971	219,30094
299,231	136,44726
299,491	108,82921
299,751	160,11982
300,011	24,00174
300,271	122,63825
300,531	168,01066
300,791	98,96559
301,051	-88,44547
301,311	246,91868
301,571	31,8927
301,831	148,28355
302,091	67,40195
302,351	-47,01734
302,61	223,24634
302,87	-37,15353
303,13	138,41998
303,39	-23,34423
303,65	152,22897
303,91	-13,48046
304,169	18,08351
304,429	35,83818
304,689	187,73772
304,949	254,80945
305,209	152,22897
305,468	77,2656
305,728	-15,45322
305,988	79,23833
306,247	81,21106
306,507	53,59282
306,767	189,71042
307,026	104,88376
307,286	195,62854
307,545	41,7564
307,805	83,18379
308,065	160,11982
308,324	-9,53496
308,584	-74,63606
308,843	22,029
309,103	16,11076
309,362	128,5564
309,622	98,96559
309,881	55,56555
310,14	177,87419
310,4	211,41015
310,659	183,79231
310,919	-27,28974
311,178	89,10197
311,437	158,14711
311,697	55,56555
311,956	-9,53496
312,215	-19,39872
312,475	57,53829
312,734	136,44726
312,993	49,64735
313,252	134,47455
313,512	130,52912
313,771	124,61096
314,03	116,72009
314,289	254,80945
314,548	148,28355
314,808	91,07469
315,067	162,09253
315,326	-54,90839
315,585	65,42922
315,844	138,41998
316,103	237,05521
316,362	0,32879
316,621	215,35554
316,88	171,95607
317,139	71,34741
317,398	53,59282
317,657	77,2656
317,916	37,81092
318,175	-39,12629
318,434	179,8469
318,693	106,85648
318,952	71,34741
319,211	4,27429
319,47	77,2656
319,729	4,27429
319,987	106,85648
320,246	-92,39102
320,505	71,34741
320,764	12,16527
321,023	91,07469
321,281	122,63825
321,54	73,32014
321,799	49,64735
322,058	47,67461
322,316	83,18379
322,575	-11,50771
322,834	81,21106
323,092	14,13802
323,351	112,77465
323,609	75,29287
323,868	67,40195
324,127	-5,58946
324,385	55,56555
324,644	120,66553
324,902	150,25626
325,161	252,83676
325,419	77,2656
325,678	-37,15353
325,936	108,82921
326,195	140,39269
326,453	223,24634
326,712	146,31084
326,97	69,37468
327,228	20,05625
327,487	138,41998
327,745	37,81092
328,004	225,21903
328,262	67,40195
328,52	142,36541
328,779	63,45649
329,037	146,31084
329,295	-35,18077
329,553	126,58368
329,812	160,11982
330,07	108,82921
330,328	-35,18077
330,586	31,8927
330,844	112,77465
331,103	22,029
331,361	87,12924
331,619	12,16527
331,877	120,66553
332,135	18,08351
332,393	126,58368
332,651	120,66553
332,909	27,94722
333,167	73,32014
333,425	33,86544
333,683	41,7564
333,941	81,21106
334,199	154,20169
334,457	116,72009
334,715	96,99287
334,973	93,04742
335,231	-5,58946
335,489	-50,96286
335,747	87,12924
336,005	85,15651
336,262	-54,90839
336,52	93,04742
336,778	24,00174
337,036	152,22897
337,294	83,18379
337,551	116,72009
337,809	173,92878
338,067	156,1744
338,325	199,57394
338,582	4,27429
338,84	39,78366
339,098	183,79231
339,355	27,94722
339,613	175,90149
339,871	91,07469
340,128	85,15651
340,386	191,68313
340,643	237,05521
340,901	140,39269
341,159	122,63825
341,416	169,98336
341,674	85,15651
341,931	148,28355
342,189	67,40195
342,446	98,96559
342,703	102,91104
342,961	229,16443
343,218	193,65583
343,476	47,67461
343,733	-15,45322
343,99	93,04742
344,248	298,20858
344,505	91,07469
344,762	246,91868
345,02	120,66553
345,277	142,36541
345,534	114,74737
345,792	71,34741
346,049	-5,58946
346,306	69,37468
346,563	57,53829
346,82	114,74737
347,078	85,15651
347,335	104,88376
347,592	237,05521
347,849	175,90149
348,106	55,56555
348,363	20,05625
348,62	116,72009
348,877	199,57394
349,135	49,64735
349,392	175,90149
349,649	24,00174
349,906	27,94722
350,163	140,39269
350,42	85,15651
350,676	100,93832
350,933	-33,20802
351,19	130,52912
351,447	39,78366
351,704	87,12924
351,961	150,25626
352,218	244,94599
352,475	130,52912
352,732	65,42922
352,988	104,88376
353,245	179,8469
353,502	-25,31699
353,759	95,02014
354,015	108,82921
354,272	164,06524
354,529	-86,47269
354,786	20,05625
355,042	179,8469
355,299	110,80193
355,556	75,29287
355,812	211,41015
356,069	-3,61671
356,325	102,91104
356,582	160,11982
356,839	79,23833
357,095	169,98336
357,352	280,45441
357,608	116,72009
357,865	49,64735
358,121	100,93832
358,378	79,23833
358,634	173,92878
358,891	-47,01734
359,147	22,029
359,404	110,80193
359,66	104,88376
359,916	160,11982
360,173	183,79231
360,429	166,03795
360,685	175,90149
360,942	25,97448
361,198	152,22897
361,454	175,90149
361,711	100,93832
361,967	53,59282
362,223	69,37468
362,479	250,86406
362,735	171,95607
362,992	91,07469
363,248	185,76502
363,504	114,74737
363,76	102,91104
364,016	51,62008
364,272	221,27364
364,528	27,94722
364,785	20,05625
365,041	128,5564
365,297	71,34741
365,553	116,72009
365,809	189,71042
366,065	158,14711
366,321	41,7564
366,577	223,24634
366,833	71,34741
367,089	81,21106
367,344	179,8469
367,6	61,48375
367,856	171,95607
368,112	96,99287
368,368	57,53829
368,624	110,80193
368,88	95,02014
369,135	142,36541
369,391	100,93832
369,647	-29,2625
369,903	211,41015
370,158	108,82921
370,414	57,53829
370,67	0,32879
370,926	100,93832
371,181	173,92878
371,437	189,71042
371,693	160,11982
371,948	164,06524
372,204	150,25626
372,459	73,32014
372,715	65,42922
372,971	171,95607
373,226	83,18379
373,482	195,62854
373,737	274,53634
373,993	85,15651
374,248	-19,39872
374,504	102,91104
374,759	237,05521
375,015	209,43745
375,27	268,61828
375,525	67,40195
375,781	175,90149
376,036	41,7564
376,291	51,62008
376,547	65,42922
376,802	39,78366
377,057	168,01066
377,313	-1,64396
377,568	154,20169
377,823	49,64735
378,079	207,46475
378,334	140,39269
378,589	193,65583
378,844	98,96559
379,099	195,62854
379,354	73,32014
379,61	79,23833
379,865	252,83676
380,12	-19,39872
380,375	130,52912
380,63	191,68313
380,885	89,10197
381,14	235,08251
381,395	91,07469
381,65	95,02014
381,905	89,10197
382,16	278,48172
382,415	126,58368
382,67	35,83818
382,925	69,37468
383,18	93,04742
383,435	199,57394
383,69	116,72009
383,945	142,36541
384,2	59,51102
384,454	130,52912
384,709	160,11982
384,964	59,51102
385,219	100,93832
385,474	138,41998
385,728	122,63825
385,983	187,73772
386,238	173,92878
386,493	169,98336
386,747	142,36541
387,002	185,76502
387,257	150,25626
387,511	203,51934
387,766	122,63825
388,02	89,10197
388,275	201,54664
388,53	156,1744
388,784	138,41998
389,039	114,74737
389,293	246,91868
389,548	185,76502
389,802	146,31084
390,057	24,00174
390,311	323,85344
390,566	120,66553
390,82	47,67461
391,075	233,10982
391,329	41,7564
391,583	183,79231
391,838	-1,64396
392,092	136,44726
392,346	154,20169
392,601	116,72009
392,855	156,1744
393,109	130,52912
393,364	112,77465
393,618	166,03795
393,872	110,80193
394,126	166,03795
394,381	209,43745
394,635	286,37247
394,889	116,72009
395,143	152,22897
395,397	104,88376
395,651	315,96272
395,905	85,15651
396,16	264,6729
396,414	278,48172
396,668	93,04742
396,922	112,77465
397,176	71,34741
397,43	189,71042
397,684	41,7564
397,938	59,51102
398,192	175,90149
398,446	258,75483
398,7	65,42922
398,954	61,48375
399,207	201,54664
399,461	258,75483
399,715	150,25626
399,969	116,72009
400,223	205,49204
400,477	280,45441
400,731	114,74737
400,984	168,01066
401,238	217,32824
401,492	108,82921
401,746	169,98336
401,999	181,81961
402,253	262,70021
402,507	130,52912
402,76	158,14711
403,014	177,87419
403,268	144,33812
403,521	235,08251
403,775	166,03795
404,029	266,64559
404,282	209,43745
404,536	235,08251
404,789	323,85344
405,043	164,06524
405,296	296,23589
405,55	110,80193
405,803	201,54664
406,057	211,41015
406,31	221,27364
406,564	300,18126
406,817	191,68313
407,07	268,61828
407,324	193,65583
407,577	227,19173
407,83	258,75483
408,084	231,13712
408,337	278,48172
408,59	185,76502
408,844	233,10982
409,097	154,20169
409,35	337,66219
409,603	164,06524
409,857	221,27364
410,11	288,34515
410,363	319,90808
410,616	284,39978
410,869	205,49204
411,123	333,71683
411,376	300,18126
411,629	284,39978
411,882	302,15394
412,135	290,31784
412,388	329,77147
412,641	365,27964
412,894	345,55289
413,147	534,92852
413,4	335,68951
413,653	312,01735
413,906	258,75483
414,159	418,5417
414,412	367,25231
414,665	359,36162
414,918	473,77623
415,17	394,8697
415,423	408,67837
415,676	300,18126
415,929	213,38285
416,182	452,07698
416,435	392,89703
416,687	469,83091
416,94	349,49824
417,193	507,31138
417,446	444,18633
417,698	493,5028
417,951	430,37769
418,204	428,40503
418,456	444,18633
418,709	515,202
418,962	493,5028
419,214	615,80703
419,467	546,76442
419,719	550,70972
419,972	625,67024
420,225	584,24472
420,477	578,32678
420,73	542,81912
420,982	765,72738
421,235	688,79468
421,487	601,99852
421,74	621,72495
421,992	722,32947
422,244	637,50608
422,497	720,35684
422,749	692,73995
423,002	730,22001
423,254	651,31456
423,506	793,34419
423,759	854,49561
424,011	848,57774
424,263	832,79673
424,515	809,12521
424,768	931,4279
425,02	791,37156
425,272	828,85148
425,524	947,20886
425,776	1105,0182
426,029	1079,37422
426,281	1134,6074
426,533	964,96244
426,785	957,07196
427,037	1047,81237
427,289	1164,19658
427,541	927,48266
427,793	1047,81237
428,045	1016,25051
428,297	1041,89453
428,549	1144,47046
428,801	1164,19658
429,053	1278,60797
429,305	1243,10101
429,557	1327,92317
429,809	1398,93699
430,061	1337,7862
430,313	1339,75881
430,565	1448,2521
430,817	1308,19709
431,069	1272,69015
431,32	1420,63564
431,572	1495,59458
431,824	1456,14252
432,076	1318,06013
432,328	1442,33429
432,579	1738,22419
432,831	1535,04662
433,083	1511,3754
433,334	1533,07402
433,586	1641,567
433,838	1663,26557
434,089	1771,75828
434,341	1901,94915
434,593	1777,67605
434,844	1860,52483
435,096	1826,99082
435,347	1925,62017
435,599	1722,44344
435,851	1915,75724
436,102	1795,42938
436,354	2036,08466
436,605	1978,87988
436,856	2081,45386
437,108	2028,19435
437,359	2158,38406
437,611	2022,27662
437,862	2272,79251
438,114	2126,82299
438,365	2286,60038
438,616	2485,82676
438,868	2211,64325
439,119	2483,85424
439,37	2462,15645
439,621	2481,88171
439,873	2543,02982
440,124	2578,53502
440,375	2817,20562
440,626	2570,64499
440,878	2580,50753
441,129	2633,76511
441,38	2698,85732
441,631	2720,55463
441,882	2927,66248
442,133	2763,94908
442,385	2825,09544
442,636	2890,18623
442,887	2951,3316
443,138	2917,80033
443,389	2905,96573
443,64	3111,09598
443,891	3130,8197
444,142	3024,31088
444,393	3152,51572
444,644	3221,54794
444,895	3363,55431
445,146	3389,19392
445,396	3146,59863
445,647	3499,63986
445,898	3422,72243
446,149	3588,38904
446,4	3531,19534
446,651	3752,07683
446,902	3578,52812
447,152	3933,50524
447,403	4170,13547
447,654	4039,99115
447,905	4067,598
448,155	4252,95147
448,406	4142,52959
448,657	4501,38359
448,907	4428,43389
449,158	4773,4456
449,409	4420,5473
449,659	4641,36174
449,91	4785,2736
450,16	4645,30466
450,411	5019,84771
450,662	5106,57362
450,912	4771,47426
451,163	4919,31942
451,413	4962,68522
451,664	5398,25633
451,914	5421,90403
452,165	5096,71861
452,415	5593,33907
452,665	5437,66896
452,916	5682,00471
453,166	5331,25264
453,417	5201,1789
453,667	5449,49256
453,917	5626,8356
454,168	5382,49101
454,418	5372,6376
454,668	5390,37369
454,918	5620,9245
455,169	5382,49101
455,419	5339,13558
455,669	5323,36968
455,919	5295,77899
456,17	5155,84784
456,42	5453,43373
456,67	4998,16559
456,92	5041,52957
457,17	5008,02113
457,42	4753,73212
457,67	5240,59625
457,92	4844,41258
458,17	4649,24757
458,421	4726,13293
458,671	4572,35951
458,921	4420,5473
459,171	4337,73662
459,421	4258,8668
459,67	4128,72655
459,92	4264,78212
460,17	4034,07536
460,42	4043,935
460,67	3976,88882
460,92	3698,82976
461,17	3827,01581
461,42	3600,22213
461,67	3732,35578
461,919	3383,2771
462,169	3499,63986
462,419	3335,94227
462,669	3383,2771
462,918	3371,44344
463,168	3416,80566
463,418	3215,63093
463,668	3089,39982
463,917	3140,68154
464,167	3186,04576
464,417	3063,7588
464,666	2931,60734
464,916	3022,33847
465,165	3055,86923
465,415	2998,6696
465,664	2870,4618
465,914	2947,38675
466,164	2996,69719
466,413	2902,02085
